File: Experiments/FZJ/MCC/raw/20240806_PMMA_DE_6mm_60Kmin_4mg_R1.txt
File Name:	PMMA_DE_6mm_60Kmin_4mg_R1.txt
Version: 8.3.7.3
Date:	06 Aug 2024
Operator:	KH
Test ID:	PMMA_DE_6mm_4mg_60K_R1
Sample ID:	PMMA_DE_6mm_4mg
Sample Mass (mg):	4.0200
Sample Cup Mass (mg):	182.3000
End Total Mass (mg):
Heating Rate (C/s):	1.0000
Combuster Temperature (C):	900.0
N2 Flow Rate (cc/min):	80.0
O2 Flow Rate (cc/min):	20.0
Calibration File:	Coeff.txt
T Correction Coefficients:	0.308739	0.0136155	0.000000000
Time Shift (s):	10.0
Pre-Test Comments:
Post-Test Comments:
Baseline Flow:	99.875
Baseline O2:	20.432
Instrument ID:
@
Time (s)	Temperature (C)	N2 Flow (cc/min)	O2 Flow (cc/min)	Total Flow (cc/min)	Oxygen (%)	HRR (W/g)	Heating Rate (C/s)	Combustor Temp (C)
0.000	75.140	80.058	19.997	99.875	20.411	-9.838	0.036	900.380
3.501	75.183	80.056	19.999	100.271	20.285	-0.784	0.068	900.417
6.999	75.626	80.057	19.998	100.636	20.259	-6.826	0.186	900.364
10.500	76.387	80.054	19.997	100.699	20.240	-8.821	0.255	900.380
14.000	77.597	80.055	19.996	101.177	20.090	6.223	0.411	900.356
17.500	79.699	80.056	19.997	101.504	20.116	6.678	0.739	900.310
21.000	82.365	80.052	19.997	101.269	20.171	4.317	0.811	900.363
24.500	85.460	80.057	19.998	101.094	20.201	3.657	0.916	900.348
28.001	88.778	80.054	19.996	100.964	20.225	3.142	0.974	900.335
31.500	92.264	80.053	19.997	100.841	20.244	2.436	1.014	900.268
35.000	95.860	80.057	19.996	100.749	20.256	1.982	1.032	900.271
38.500	99.507	80.054	19.997	100.694	20.266	1.508	1.062	900.293
42.000	103.186	80.054	19.997	100.665	20.273	1.755	1.069	900.266
45.500	106.894	80.052	19.998	100.645	20.280	1.380	1.076	900.256
49.000	110.655	80.054	19.995	100.594	20.281	1.412	1.094	900.217
52.500	114.431	80.058	19.997	100.575	20.291	1.069	1.120	900.242
56.000	118.135	80.059	19.996	100.564	20.292	0.944	1.107	900.239
59.500	121.893	80.059	19.997	100.541	20.298	0.701	1.088	900.219
63.000	125.618	80.057	19.997	100.541	20.296	0.792	1.068	900.211
66.500	129.294	80.057	19.997	100.529	20.292	1.423	1.038	900.230
70.000	132.984	80.056	19.998	100.536	20.287	1.914	1.073	900.221
73.501	136.680	80.057	19.997	100.512	20.281	2.377	1.045	900.223
77.000	140.331	80.055	19.997	100.503	20.279	2.608	1.017	900.208
80.501	144.023	80.056	19.999	100.496	20.266	3.830	1.090	900.199
84.000	147.647	80.057	19.998	100.498	20.262	4.251	1.033	900.171
87.500	151.269	80.056	19.997	100.483	20.253	4.949	1.030	900.211
91.001	154.864	80.054	19.998	100.476	20.249	5.415	1.025	900.189
94.502	158.505	80.060	19.997	100.477	20.238	6.486	1.070	900.166
98.001	162.060	80.055	19.998	100.468	20.223	7.549	1.018	900.183
101.501	165.662	80.059	19.998	100.450	20.199	9.304	1.005	900.162
105.001	169.224	80.055	19.998	100.453	20.169	11.727	1.025	900.173
108.501	172.811	80.054	19.998	100.461	20.133	14.763	1.013	900.150
112.002	176.417	80.057	19.998	100.449	20.097	17.717	1.038	900.179
115.501	179.945	80.057	19.997	100.432	20.055	21.260	0.995	900.157
119.002	183.573	80.058	19.997	100.424	20.021	23.921	1.043	900.189
122.501	187.129	80.057	19.996	100.403	19.995	26.118	1.077	900.168
126.001	190.667	80.056	19.997	100.398	19.981	27.316	1.020	900.177
129.501	194.216	80.055	19.996	100.386	19.984	27.299	0.997	900.155
133.001	197.801	80.057	19.998	100.379	20.003	26.093	1.019	900.157
136.502	201.379	80.056	19.998	100.360	20.040	22.995	1.064	900.132
140.002	204.869	80.056	19.997	100.344	20.088	19.227	0.987	900.136
143.501	208.437	80.058	19.997	100.355	20.139	14.896	0.963	900.114
147.001	212.011	80.055	19.998	100.370	20.188	10.864	0.999	900.134
150.502	215.585	80.056	19.996	100.396	20.218	8.583	1.034	900.140
154.001	219.123	80.057	19.997	100.412	20.238	6.896	0.996	900.146
157.501	222.651	80.057	19.998	100.414	20.250	6.223	1.020	900.107
161.001	226.200	80.056	19.999	100.422	20.251	6.439	1.021	900.090
164.501	229.734	80.056	19.999	100.402	20.261	5.856	0.981	900.123
168.001	233.255	80.056	19.999	100.382	20.257	6.293	0.988	900.085
171.502	236.779	80.058	19.999	100.368	20.258	6.546	1.006	900.126
175.002	240.334	80.058	20.001	100.365	20.262	6.256	1.044	900.115
178.502	243.824	80.056	19.999	100.336	20.269	5.773	1.008	900.124
182.002	247.367	80.053	19.998	100.337	20.273	5.394	1.025	900.105
185.502	250.885	80.055	19.998	100.329	20.276	5.215	0.984	900.118
189.002	254.399	80.052	19.997	100.339	20.282	4.674	0.985	900.118
192.502	257.907	80.055	19.999	100.334	20.283	4.671	0.964	900.094
196.002	261.439	80.055	19.998	100.341	20.284	4.609	0.986	900.085
199.503	264.945	80.056	19.998	100.336	20.283	4.792	1.009	900.111
203.003	268.440	80.057	20.000	100.330	20.273	5.656	0.956	900.108
206.503	271.953	80.057	19.998	100.330	20.263	6.364	1.006	900.113
210.002	275.500	80.054	19.998	100.323	20.251	7.412	1.041	900.109
213.502	278.969	80.053	19.997	100.324	20.223	9.478	1.004	900.100
217.002	282.515	80.053	19.998	100.312	20.194	11.901	1.044	900.101
220.502	285.992	80.055	19.998	100.321	20.159	14.564	1.005	900.090
224.002	289.520	80.055	19.998	100.308	20.119	17.602	1.014	900.120
227.503	292.978	80.056	19.998	100.312	20.073	21.443	0.984	900.105
231.003	296.473	80.058	19.999	100.313	20.025	25.159	0.999	900.118
234.503	300.013	80.052	19.997	100.296	19.984	28.154	1.009	900.088
238.002	303.498	80.056	19.999	100.285	19.946	31.299	0.965	900.088
241.503	307.027	80.055	19.999	100.301	19.915	33.594	1.011	900.090
245.003	310.488	80.055	19.999	100.286	19.886	35.880	0.994	900.069
248.503	314.014	80.052	19.998	100.290	19.855	38.092	1.032	900.068
252.003	317.506	80.057	19.998	100.285	19.829	39.810	1.002	900.089
255.503	321.029	80.051	19.997	100.305	19.784	42.729	1.033	900.088
259.003	324.495	80.054	19.999	100.321	19.716	47.881	0.984	900.089
262.503	327.995	80.053	19.998	100.361	19.616	55.396	0.996	900.083
266.003	331.503	80.054	19.999	100.357	19.478	65.768	1.014	900.111
269.503	335.011	80.054	19.999	100.379	19.289	80.138	1.007	900.070
273.004	338.495	80.054	19.997	100.392	19.071	96.903	0.995	900.084
276.503	341.935	80.056	19.998	100.400	18.814	116.685	0.978	900.117
280.003	345.449	80.053	19.997	100.400	18.528	138.699	0.984	900.103
283.503	348.932	80.054	19.999	100.387	18.220	162.234	0.990	900.091
287.004	352.421	80.056	19.999	100.375	17.897	187.010	0.982	900.092
290.503	355.905	80.054	19.999	100.374	17.571	211.780	0.989	900.112
294.003	359.359	80.058	19.998	100.350	17.258	235.851	0.988	900.145
297.503	362.833	80.056	19.998	100.353	16.971	257.391	1.001	900.145
301.003	366.295	80.057	19.997	100.324	16.724	275.629	1.003	900.122
304.504	369.774	80.057	19.998	100.333	16.500	291.519	0.970	900.145
308.004	373.247	80.055	19.999	100.367	16.241	311.006	0.975	900.125
311.503	376.752	80.056	19.998	100.451	15.986	331.162	0.988	900.134
315.004	380.214	80.052	19.998	100.465	15.891	338.253	1.025	900.124
318.505	383.692	80.053	20.000	100.364	15.818	343.348	1.006	900.119
322.004	387.182	80.052	19.999	100.366	15.835	340.333	1.001	900.149
325.504	390.685	80.053	20.001	100.407	15.815	342.241	1.026	900.169
329.004	394.164	80.056	19.998	100.563	15.816	341.726	1.011	900.165
332.504	397.662	80.053	20.000	100.524	15.885	335.601	0.993	900.172
336.004	401.174	80.051	19.998	100.500	15.922	336.286	0.982	900.193
339.504	404.677	80.054	19.999	100.689	16.200	316.737	1.003	900.178
343.004	408.205	80.053	19.998	100.374	16.777	271.306	0.978	900.187
346.504	411.784	80.052	19.999	100.202	17.254	234.776	1.009	900.195
350.004	415.303	80.054	19.999	100.389	17.846	188.053	0.991	900.194
353.505	418.865	80.054	20.000	100.432	18.444	140.725	1.026	900.187
357.004	422.458	80.054	20.000	100.568	18.949	101.025	1.006	900.210
360.504	426.024	80.055	19.998	100.709	19.345	70.198	1.044	900.250
364.004	429.511	80.052	20.000	100.775	19.647	47.603	0.997	900.231
367.505	433.032	80.050	19.998	100.813	19.879	30.779	0.985	900.229
371.004	436.540	80.055	19.999	100.768	20.040	19.545	1.004	900.283
374.504	440.049	80.052	19.999	100.689	20.153	11.857	1.027	900.277
378.005	443.510	80.051	19.999	100.610	20.230	7.163	1.003	900.250
381.505	447.030	80.049	19.998	100.536	20.285	3.899	1.012	900.249
385.005	450.491	80.055	19.998	100.453	20.322	1.777	0.968	900.288
388.505	454.004	80.055	19.996	100.381	20.337	0.965	0.978	900.284
392.005	457.505	80.056	19.997	100.331	20.357	-0.307	1.015	900.274
395.505	460.942	80.054	19.997	100.303	20.368	-0.820	0.939	900.269
399.005	464.460	80.055	19.998	100.287	20.375	-0.961	1.005	900.295
402.505	467.944	80.058	19.997	100.257	20.377	-1.118	0.993	900.306
406.005	471.434	80.054	19.998	100.238	20.380	-1.395	1.003	900.289
409.505	474.918	80.055	19.999	100.237	20.386	-1.685	0.980	900.346
413.006	478.409	80.056	20.000	100.238	20.381	-1.365	0.978	900.347
416.505	481.899	80.055	19.998	100.226	20.385	-1.712	1.015	900.371
420.006	485.367	80.060	19.999	100.232	20.384	-1.594	0.984	900.364
423.505	488.866	80.060	19.997	100.232	20.383	-1.330	1.019	900.422
427.005	492.338	80.059	19.999	100.234	20.384	-1.499	0.997	900.382
430.506	495.846	80.060	19.998	100.215	20.384	-1.493	0.977	900.446
434.007	499.323	80.057	19.999	100.221	20.390	-1.826	0.980	900.436
437.506	502.791	80.057	19.999	100.218	20.387	-1.586	0.956	900.461
441.006	506.315	80.056	19.998	100.216	20.385	-1.438	1.032	900.466
444.505	509.756	80.055	19.999	100.214	20.387	-1.410	0.993	900.445
448.005	513.311	80.055	19.998	100.216	20.389	-1.758	1.025	900.491
451.506	516.775	80.057	19.999	100.203	20.390	-1.659	0.998	900.479
455.006	520.269	80.056	19.998	100.214	20.390	-1.730	1.010	900.478
458.505	523.751	80.054	19.997	100.204	20.390	-1.768	0.979	900.515
462.006	527.254	80.056	19.998	100.208	20.392	-2.076	1.005	900.512
465.506	530.757	80.056	19.999	100.213	20.389	-1.615	1.025	900.524
469.006	534.206	80.060	19.998	100.222	20.392	-1.805	0.978	900.548
472.506	537.731	80.056	19.997	100.209	20.389	-1.429	1.020	900.541
476.007	541.219	80.054	19.998	100.205	20.390	-1.572	1.026	900.521
479.506	544.682	80.054	19.997	100.195	0.000	0.000	0.989	900.565
483.006	548.203	80.056	19.996	100.200	0.000	0.000	1.020	900.560
486.506	551.702	80.056	19.999	100.200	0.000	0.000	1.041	900.584
488.506	553.677	80.055	19.998	100.197	0.000	0.000	1.016	900.584