File: Experiments/FZJ/MCC/raw/20240813_PMMA_DE_6mm_60Kmin_4mg_R2.txt
File Name:	PMMA_DE_6mm_60Kmin_4mg_R2.txt
Version: 8.3.7.3
Date:	13 Aug 2024
Operator:	KH
Test ID:	PMMA_DE_6mm_4mg_60K_R2
Sample ID:	PMMA_DE_6mm_4mg
Sample Mass (mg):	4.0500
Sample Cup Mass (mg):	184.2700
End Total Mass (mg):
Heating Rate (C/s):	1.0000
Combuster Temperature (C):	900.0
N2 Flow Rate (cc/min):	80.0
O2 Flow Rate (cc/min):	20.0
Calibration File:	Coeff.txt
T Correction Coefficients:	0.308739	0.0136155	0.000000000
Time Shift (s):	10.0
Pre-Test Comments:
Post-Test Comments:
Baseline Flow:	100.127
Baseline O2:	20.280
Instrument ID:
@
Time (s)	Temperature (C)	N2 Flow (cc/min)	O2 Flow (cc/min)	Total Flow (cc/min)	Oxygen (%)	HRR (W/g)	Heating Rate (C/s)	Combustor Temp (C)
0.000	75.032	80.062	19.974	100.127	20.298	-9.942	-0.049	899.945
3.500	75.186	80.061	19.973	100.474	20.186	-1.649	0.055	899.874
7.001	75.778	80.054	19.974	100.835	20.161	-7.577	0.174	899.882
10.501	76.606	80.057	19.975	100.864	20.141	-9.656	0.264	899.859
14.000	77.943	80.056	19.973	101.320	20.006	4.216	0.478	899.823
17.501	80.048	80.057	19.974	101.672	20.032	4.933	0.707	899.756
21.001	82.755	80.059	19.972	101.432	20.083	3.384	0.807	899.749
24.500	85.861	80.057	19.975	101.238	20.116	2.515	0.910	899.684
28.001	89.257	80.052	19.976	101.069	20.136	2.144	1.070	899.659
31.501	92.688	80.059	19.975	100.958	20.157	1.387	0.888	899.649
35.001	96.288	80.061	19.972	100.869	20.169	0.874	1.006	899.622
38.500	99.997	80.057	19.975	100.812	20.186	0.035	1.124	899.549
42.001	103.671	80.059	19.974	100.780	20.187	0.351	1.049	899.563
45.501	107.381	80.057	19.974	100.747	20.189	0.519	1.041	899.460
49.001	111.098	80.058	19.973	100.719	20.200	-0.374	0.971	899.422
52.501	114.929	80.061	19.974	100.696	20.200	0.063	1.106	899.425
56.001	118.652	80.059	19.973	100.692	20.207	-0.718	1.080	899.349
59.501	122.372	80.061	19.974	100.662	20.204	-0.162	1.069	899.414
63.001	126.019	80.062	19.972	100.686	20.200	0.307	1.004	899.328
66.500	129.729	80.062	19.973	100.663	20.199	0.425	0.951	899.295
70.001	133.454	80.060	19.971	100.648	20.193	1.012	1.011	899.215
73.501	137.165	80.057	19.973	100.648	20.193	1.216	1.042	899.177
77.001	140.855	80.060	19.974	100.635	20.181	2.057	1.086	899.237
80.501	144.473	80.059	19.974	100.628	20.186	2.031	1.066	899.196
84.002	148.091	80.059	19.973	100.623	20.166	3.462	1.141	899.116
87.502	151.723	80.059	19.975	100.608	20.168	3.478	1.046	899.151
91.001	155.343	80.060	19.975	100.610	20.157	4.055	1.054	899.122
94.502	158.857	80.061	19.975	100.598	20.146	4.888	1.022	899.098
98.001	162.448	80.059	19.974	100.619	20.138	5.862	1.004	899.030
101.501	166.004	80.065	19.974	100.614	20.106	8.053	1.057	899.054
105.002	169.668	80.057	19.972	100.594	20.082	9.921	1.024	898.924
108.501	173.168	80.060	19.974	100.614	20.044	13.071	1.005	898.994
112.001	176.750	80.060	19.974	100.612	20.001	16.412	1.004	898.920
115.502	180.372	80.059	19.976	100.597	19.966	19.058	1.047	898.944
119.002	183.918	80.059	19.974	100.592	19.928	22.353	1.020	898.943
122.502	187.508	80.058	19.975	100.594	19.900	24.755	1.017	898.914
126.002	191.081	80.060	19.975	100.569	19.891	25.514	1.019	898.909
129.502	194.639	80.060	19.975	100.542	19.897	25.243	1.021	898.845
133.002	198.234	80.058	19.974	100.543	19.920	23.535	1.057	898.840
136.503	201.800	80.060	19.975	100.530	19.960	20.270	1.030	898.880
140.002	205.363	80.057	19.976	100.527	20.009	16.393	1.017	898.807
143.501	208.884	80.059	19.975	100.545	20.060	12.428	0.965	898.820
147.002	212.488	80.058	19.974	100.549	20.106	8.580	0.971	898.782
150.503	216.036	80.061	19.975	100.551	20.133	6.453	1.022	898.712
154.002	219.590	80.061	19.973	100.571	20.154	5.062	0.995	898.741
157.502	223.136	80.058	19.974	100.581	20.164	4.426	0.954	898.746
161.002	226.679	80.062	19.973	100.561	20.166	4.306	0.958	898.731
164.502	230.223	80.060	19.974	100.557	20.167	4.475	0.982	898.693
168.003	233.784	80.058	19.974	100.551	20.165	4.817	1.041	898.673
171.502	237.315	80.057	19.974	100.537	20.169	4.534	1.063	898.653
175.002	240.788	80.058	19.974	100.525	20.168	4.679	0.992	898.654
178.503	244.316	80.060	19.975	100.521	20.174	4.508	0.975	898.639
182.002	247.905	80.059	19.974	100.521	20.177	4.057	1.053	898.648
185.503	251.426	80.058	19.974	100.494	20.181	3.817	1.037	898.635
189.004	254.942	80.060	19.974	100.509	20.184	3.615	1.009	898.624
192.503	258.457	80.057	19.974	100.509	20.186	3.678	1.005	898.615
196.003	261.962	80.057	19.974	100.504	20.181	3.937	1.019	898.557
199.503	265.472	80.058	19.975	100.489	20.183	3.791	0.972	898.574
203.003	269.037	80.058	19.974	100.500	20.175	4.133	1.020	898.578
206.503	272.496	80.057	19.975	100.502	20.161	5.359	1.009	898.559
210.003	275.982	80.060	19.973	100.517	20.140	7.001	0.967	898.556
213.503	279.479	80.059	19.973	100.508	20.125	8.162	0.993	898.573
217.003	283.030	80.058	19.975	100.506	20.093	10.654	1.037	898.614
220.504	286.512	80.060	19.975	100.500	20.059	13.253	0.987	898.564
224.003	290.039	80.059	19.974	100.500	20.012	16.736	1.023	898.527
227.503	293.538	80.059	19.974	100.502	19.968	20.284	1.003	898.551
231.003	297.083	80.060	19.974	100.511	19.917	24.139	0.998	898.570
234.504	300.558	80.058	19.974	100.497	19.874	27.723	0.983	898.596
238.004	304.093	80.059	19.973	100.499	19.837	30.603	0.998	898.543
241.504	307.589	80.059	19.974	100.477	19.803	33.303	0.985	898.566
245.004	311.090	80.058	19.974	100.478	19.771	35.531	1.005	898.615
248.503	314.594	80.060	19.975	100.469	19.751	36.943	1.006	898.584
252.004	318.129	80.061	19.975	100.482	19.719	39.003	0.998	898.615
255.504	321.605	80.058	19.975	100.490	19.671	42.542	0.962	898.597
259.004	325.123	80.059	19.974	100.517	19.600	47.708	0.982	898.635
262.504	328.614	80.057	19.975	100.530	19.493	55.624	1.018	898.692
266.004	332.109	80.055	19.973	100.548	19.337	67.466	0.979	898.721
269.504	335.608	80.059	19.974	100.566	19.147	81.638	0.948	898.724
273.004	339.147	80.055	19.973	100.562	18.905	100.120	1.002	898.750
276.505	342.616	80.057	19.974	100.589	18.646	119.892	0.970	898.765
280.005	346.100	80.057	19.973	100.588	18.358	142.103	0.969	898.785
283.504	349.573	80.056	19.975	100.586	18.044	165.691	0.974	898.821
287.004	353.101	80.059	19.974	100.553	17.718	190.447	1.002	898.812
290.505	356.592	80.056	19.975	100.571	17.401	214.555	1.044	898.899
294.005	360.027	80.060	19.973	100.558	17.093	237.830	0.987	898.939
297.504	363.530	80.055	19.974	100.555	16.816	258.502	1.038	898.915
301.004	366.961	80.059	19.973	100.544	16.587	275.412	0.997	898.932
304.505	370.454	80.061	19.974	100.554	16.379	290.126	1.006	898.960
308.004	373.932	80.061	19.974	100.569	16.147	307.477	0.962	899.027
311.505	377.444	80.060	19.975	100.643	15.845	330.874	1.039	899.045
315.004	380.930	80.055	19.974	100.660	15.817	332.636	1.023	899.090
318.505	384.375	80.060	19.974	100.584	15.692	342.732	0.958	899.110
322.004	387.864	80.059	19.973	100.610	15.749	337.082	0.999	899.143
325.505	391.383	80.055	19.974	100.533	15.787	333.499	1.031	899.160
329.005	394.869	80.059	19.975	100.648	15.751	335.807	0.970	899.186
332.505	398.401	80.059	19.975	100.722	15.685	342.840	1.010	899.177
336.005	401.891	80.058	19.975	100.776	15.888	328.865	0.995	899.244
339.505	405.435	80.059	19.975	100.607	16.382	290.776	1.017	899.311
343.005	408.962	80.057	19.975	100.481	16.775	261.651	1.015	899.311
346.505	412.492	80.057	19.975	100.577	17.257	224.971	1.007	899.327
350.006	416.058	80.057	19.974	100.536	17.856	179.090	1.002	899.368
353.505	419.625	80.059	19.974	100.587	18.459	131.889	1.037	899.383
357.005	423.164	80.060	19.974	100.629	18.950	93.141	1.013	899.406
360.506	426.709	80.058	19.975	100.744	19.337	63.543	1.006	899.464
364.005	430.217	80.055	19.975	100.846	19.627	41.837	1.025	899.490
367.505	433.690	80.058	19.975	100.860	19.836	27.039	0.963	899.500
371.006	437.211	80.060	19.974	100.822	19.985	16.320	0.993	899.538
374.505	440.674	80.057	19.975	100.734	20.087	9.601	1.001	899.584
378.005	444.147	80.063	19.974	100.687	20.154	5.197	1.028	899.633
381.506	447.647	80.058	19.975	100.610	20.205	1.907	1.029	899.604
385.005	451.157	80.057	19.974	100.556	20.239	-0.269	1.023	899.655
388.505	454.653	80.058	19.974	100.512	20.265	-1.791	1.036	899.730
392.006	458.120	80.055	19.974	100.484	20.272	-2.094	0.971	899.738
395.506	461.592	80.056	19.974	100.446	20.278	-2.312	0.953	899.767
399.005	465.139	80.058	19.974	100.432	20.287	-2.823	1.016	899.773
402.506	468.640	80.057	19.976	100.416	20.287	-2.531	1.007	899.812
406.006	472.116	80.057	19.975	100.403	20.291	-2.822	1.016	899.844
409.505	475.623	80.056	19.973	100.381	20.287	-2.344	0.990	899.863
413.007	479.108	80.058	19.975	100.378	20.290	-2.533	1.015	899.925
416.506	482.620	80.055	19.975	100.371	20.290	-2.406	0.991	899.960
420.006	486.094	80.056	19.975	100.367	20.293	-2.876	0.974	900.019
423.506	489.606	80.057	19.975	100.360	20.291	-2.549	1.017	900.046
427.006	493.072	80.060	19.974	100.382	20.291	-2.508	1.005	900.043
430.506	496.611	80.060	19.975	100.368	20.297	-2.750	0.997	900.102
434.006	500.077	80.058	19.974	100.363	20.296	-2.848	1.022	900.086
437.506	503.598	80.061	19.974	100.349	20.297	-2.904	0.992	900.148
441.006	507.049	80.056	19.973	100.358	20.296	-2.449	0.960	900.188
444.507	510.587	80.055	19.974	100.359	20.296	-2.542	1.023	900.237
448.006	514.092	80.058	19.974	100.330	20.296	-2.376	1.023	900.267
451.506	517.592	80.057	19.975	100.336	20.301	-3.047	1.014	900.299
455.007	521.043	80.056	19.974	100.329	20.297	-2.541	0.950	900.349
458.507	524.589	80.056	19.974	100.351	20.300	-2.937	0.998	900.364
462.006	528.089	80.059	19.974	100.327	20.302	-2.893	1.040	900.434
465.507	531.577	80.058	19.976	100.347	20.303	-3.109	1.014	900.463
469.007	535.056	80.055	19.976	100.325	20.304	-3.237	1.024	900.512
472.507	538.539	80.057	19.975	100.341	20.302	-2.974	0.976	900.538
476.008	542.035	80.060	19.975	100.339	20.303	-3.001	0.992	900.566
479.506	545.551	80.060	19.974	100.335	0.000	0.000	0.998	900.599
483.008	549.045	80.059	19.974	100.327	0.000	0.000	0.995	900.646
486.507	552.554	80.060	19.974	100.336	0.000	0.000	0.990	900.644
487.508	553.542	80.057	19.974	100.324	0.000	0.000	0.987	900.649